#Intensity_unit=cps
#Attenuator_coefficient=1.0000
3.0000 11280.7300
3.0100 11826.5325
3.0200 13138.2075
3.0300 13434.0725
3.0400 12061.6775
3.0500 11396.4925
3.0600 12289.1975
3.0700 11384.2750
3.0800 12273.4725
3.0900 12982.0425
3.1000 12307.2975
3.1100 12187.8925
3.1200 12657.2150
3.1300 11909.9650
3.1400 11287.1925
3.1500 11647.1250
3.1600 11395.1300
3.1700 10806.1175
3.1800 11465.3500
3.1900 11128.9200
3.2000 10987.5900
3.2100 11349.1975
3.2200 9982.5250
3.2300 10497.9950
3.2400 11286.6300
3.2500 11549.1725
3.2600 11004.3975
3.2700 9762.1725
3.2800 10259.0750
3.2900 10172.3750
3.3000 11470.2250
3.3100 11215.2850
3.3200 11135.3800
3.3300 11195.3600
3.3400 10725.0975
3.3500 11192.1650
3.3600 11673.9125
3.3700 12325.6000
3.3800 12651.9550
3.3900 12517.7450
3.4000 11556.0925
3.4100 11536.6825
3.4200 12733.8550
3.4300 12091.1100
3.4400 11995.8075
3.4500 11630.5950
3.4600 12238.4125
3.4700 11504.7900
3.4800 11193.9075
3.4900 10712.6225
3.5000 11010.1875
3.5100 10866.5950
3.5200 9786.1000
3.5300 9662.1550
3.5400 10023.1950
3.5500 9938.6500
3.5600 9876.8025
3.5700 10691.3425
3.5800 10654.7700
3.5900 10783.5800
3.6000 10317.6975
3.6100 10725.3950
3.6200 10070.7450
3.6300 9444.6850
3.6400 9043.2875
3.6500 11209.4800
3.6600 10709.2675
3.6700 9884.7175
3.6800 9317.2125
3.6900 10340.5050
3.7000 10596.5025
3.7100 10030.6500
3.7200 10071.2400
3.7300 10427.9375
3.7400 10882.4800
3.7500 11085.8175
3.7600 10362.0100
3.7700 11207.1925
3.7800 11442.4775
3.7900 10625.8575
3.8000 11118.3575
3.8100 10945.0375
3.8200 11418.4600
3.8300 11860.6400
3.8400 11718.3650
3.8500 13633.8575
3.8600 14235.8825
3.8700 14551.8075
3.8800 15808.2250
3.8900 15824.2100
3.9000 16732.8175
3.9100 17520.4175
3.9200 17433.4950
3.9300 18157.3225
3.9400 18448.3075
3.9500 19746.3250
3.9600 22218.3500
3.9700 23227.6675
3.9800 24104.3075
3.9900 26416.1600
4.0000 27902.0575
4.0100 30485.9675
4.0200 33060.7425
4.0300 34182.9650
4.0400 36710.7200
4.0500 39813.9075
4.0600 44931.2925
4.0700 47958.2300
4.0800 51664.7400
4.0900 57822.0550
4.1000 63911.3175
4.1100 69333.6500
4.1200 76267.8650
4.1300 83378.2150
4.1400 90094.5975
4.1500 100533.9700
4.1600 111840.3850
4.1700 124175.5225
4.1800 140615.0600
4.1900 155982.0475
4.2000 172466.1325
4.2100 186968.5825
4.2200 202720.3475
4.2300 223897.7225
4.2400 247945.6950
4.2500 272207.9650
4.2600 300330.5425
4.2700 321492.5375
4.2800 345943.7825
4.2900 359166.6375
4.3000 372387.8575
4.3100 371635.3000
4.3200 351205.6475
4.3300 318457.9425
4.3400 281197.3875
4.3500 243379.1000
4.3600 200539.5675
4.3700 163662.6575
4.3800 129870.0825
4.3900 98469.6675
4.4000 73668.0325
4.4100 56634.3975
4.4200 45155.1550
4.4300 36494.8075
4.4400 29772.2750
4.4500 25331.9175
4.4600 22414.7575
4.4700 20925.2150
4.4800 20252.8950
4.4900 20045.5700
4.5000 19180.7800
4.5100 17675.4850
4.5200 16160.1300
4.5300 16385.7525
4.5400 16253.9350
4.5500 15399.7600
4.5600 12773.5000
4.5700 12369.0000
4.5800 12539.3800
4.5900 12385.5800
4.6000 11058.0075
4.6100 10665.7900
4.6200 10434.6900
4.6300 10506.5100
4.6400 10685.0225
4.6500 10449.9000
4.6600 10556.9775
4.6700 10544.1250
4.6800 9942.9800
4.6900 9958.4050
4.7000 9437.6575
4.7100 8894.3700
4.7200 9580.2325
4.7300 9348.0700
4.7400 9393.4275
4.7500 8277.0700
4.7600 8864.4950
4.7700 9634.5375
4.7800 8367.4825
4.7900 8524.1050
4.8000 8588.4325
4.8100 8589.9350
4.8200 9230.0250
4.8300 8223.2975
4.8400 7254.0475
4.8500 7794.5200
4.8600 8004.3150
4.8700 8183.2450
4.8800 7641.9850
4.8900 6814.3025
4.9000 6314.3725
4.9100 7082.0475
4.9200 7337.4750
4.9300 7900.1275
4.9400 7391.6225
4.9500 7215.1850
4.9600 7120.0400
4.9700 7314.1600
4.9800 7374.1125
4.9900 6647.8575
5.0000 7026.1350
5.0100 6969.7250
5.0200 6693.0650
5.0300 6291.4225
5.0400 6221.7675
5.0500 6317.8175
5.0600 5868.5975
5.0700 5755.2325
5.0800 6130.1050
5.0900 6375.5050
5.1000 6684.6275
5.1100 6852.4950
5.1200 6822.7025
5.1300 6335.8900
5.1400 6542.0800
5.1500 6373.4525
5.1600 5726.0250
5.1700 5765.3875
5.1800 5283.8125
5.1900 5504.1725
5.2000 5761.3150
5.2100 5749.3250
5.2200 5678.7150
5.2300 5698.0050
5.2400 6596.0000
5.2500 6608.9275
5.2600 5885.4475
5.2700 5580.5675
5.2800 5673.6450
5.2900 5839.3725
5.3000 5563.5250
5.3100 5054.9150
5.3200 5396.9325
5.3300 6247.8875
5.3400 6119.8000
5.3500 5686.7200
5.3600 5617.7375
5.3700 5665.2250
5.3800 5192.9750
5.3900 4850.7700
5.4000 4999.2300
5.4100 5320.5550
5.4200 5612.2700
5.4300 5160.6775
5.4400 4934.7125
5.4500 4698.1075
5.4600 4914.8450
5.4700 5261.6050
5.4800 5169.3600
5.4900 4764.3075
5.5000 5019.5125
5.5100 5350.4275
5.5200 5203.0200
5.5300 4702.9875
5.5400 4634.1100
5.5500 4196.0925
5.5600 4030.4150
5.5700 4521.1000
5.5800 4726.7125
5.5900 4649.9925
5.6000 4983.9875
5.6100 5021.8550
5.6200 4614.9275
5.6300 4436.9375
5.6400 4496.4875
5.6500 4720.9875
5.6600 4417.9825
5.6700 4403.4225
5.6800 4316.9900
5.6900 4549.5225
5.7000 4278.4000
5.7100 4062.1775
5.7200 4227.3675
5.7300 4170.9650
5.7400 4320.9325
5.7500 4743.5700
5.7600 4703.9950
5.7700 4996.5550
5.7800 4877.8350
5.7900 4072.3375
5.8000 4204.8025
5.8100 4024.2000
5.8200 4100.4925
5.8300 4517.1900
5.8400 4871.5825
5.8500 4635.6950
5.8600 4086.1025
5.8700 3807.1375
5.8800 3797.1250
5.8900 4037.1125
5.9000 4346.7075
5.9100 4076.9025
5.9200 3943.2575
5.9300 4128.5900
5.9400 4038.7350
5.9500 4090.4075
5.9600 4163.8675
5.9700 3485.6175
5.9800 3721.0100
5.9900 3821.3900
6.0000 3635.6325
6.0100 3649.0350
6.0200 4462.2525
6.0300 4936.9100
6.0400 4248.2675
6.0500 3699.3875
6.0600 3819.6325
6.0700 3934.4725
6.0800 3867.5475
6.0900 3870.4225
6.1000 3878.0350
6.1100 3871.6950
6.1200 3828.4675
6.1300 3587.3025
6.1400 3571.4475
6.1500 3740.2025
6.1600 3899.5900
6.1700 3898.4450
6.1800 4060.5400
6.1900 4050.6525
6.2000 3871.1275
6.2100 3736.9375
6.2200 3269.2575
6.2300 3494.6900
6.2400 3677.4800
6.2500 3469.7875
6.2600 3775.8025
6.2700 3993.5250
6.2800 3979.0950
6.2900 4101.5750
6.3000 4257.0625
6.3100 3901.1075
6.3200 3743.1750
6.3300 3701.8975
6.3400 3682.2825
6.3500 3782.1750
6.3600 3852.7025
6.3700 4000.7750
6.3800 3734.3725
6.3900 3395.0950
6.4000 3377.0950
6.4100 3642.9775
6.4200 3976.6075
6.4300 3858.4575
6.4400 3493.3400
6.4500 3723.6050
6.4600 3372.3350
6.4700 3312.9675
6.4800 3568.6175
6.4900 3542.4350
6.5000 4008.9225
6.5100 3695.8825
6.5200 3757.7575
6.5300 3963.2675
6.5400 3828.5175
6.5500 3551.2625
6.5600 3328.8250
6.5700 3674.0250
6.5800 4033.9725
6.5900 3538.3475
6.6000 3368.6275
6.6100 3959.7700
6.6200 3850.9525
6.6300 3609.1725
6.6400 3330.0300
6.6500 3562.0850
6.6600 3361.0125
6.6700 3551.1325
6.6800 4011.6900
6.6900 3943.5300
6.7000 3362.9025
6.7100 3154.7075
6.7200 3707.1050
6.7300 3833.5575
6.7400 3591.4250
6.7500 3342.0675
6.7600 3497.1925
6.7700 3554.1425
6.7800 3405.8175
6.7900 3476.1575
6.8000 3363.6500
6.8100 3581.2000
6.8200 3697.2750
6.8300 3691.8675
6.8400 3590.3875
6.8500 3320.9775
6.8600 3126.2200
6.8700 3590.9125
6.8800 3959.7625
6.8900 3608.7300
6.9000 3428.8775
6.9100 3455.5325
6.9200 3747.9300
6.9300 3485.3600
6.9400 3508.0275
6.9500 3740.2850
6.9600 3363.4800
6.9700 3264.9375
6.9800 3674.8250
6.9900 3861.2925
7.0000 3962.4100
7.0100 4058.9275
7.0200 4482.4750
7.0300 4680.6850
7.0400 4656.5425
7.0500 4267.0325
7.0600 4070.1525
7.0700 3805.5975
7.0800 3785.4625
7.0900 3942.3900
7.1000 3501.8925
7.1100 3223.0275
7.1200 3404.7075
7.1300 3644.7950
7.1400 3706.1875
7.1500 3761.4825
7.1600 3752.6300
7.1700 3553.3675
7.1800 3378.5575
7.1900 3304.0375
7.2000 3376.0725
7.2100 3261.6450
7.2200 3011.7475
7.2300 3106.8800
7.2400 3479.4975
7.2500 3547.7100
7.2600 3308.9100
7.2700 3211.7675
7.2800 3384.5375
7.2900 3193.9225
7.3000 2923.5300
7.3100 3499.6375
7.3200 3345.5450
7.3300 3201.5700
7.3400 3223.5975
7.3500 3044.2600
7.3600 3135.6875
7.3700 3152.3825
7.3800 3121.7775
7.3900 2914.9000
7.4000 2992.2425
7.4100 3326.7725
7.4200 3383.0525
7.4300 3323.4700
7.4400 2875.4600
7.4500 2961.0150
7.4600 3374.2700
7.4700 3386.8400
7.4800 3187.3850
7.4900 3089.1225
7.5000 3128.6800
7.5100 3519.1500
7.5200 4052.5425
7.5300 3680.8350
7.5400 3680.9725
7.5500 3371.7550
7.5600 3114.9250
7.5700 3196.8325
7.5800 3132.9300
7.5900 2992.7200
7.6000 2838.0300
7.6100 2977.0050
7.6200 3120.0500
7.6300 3142.0575
7.6400 3054.8525
7.6500 3150.0150
7.6600 3266.2700
7.6700 3453.4025
7.6800 3444.5175
7.6900 3346.0775
7.7000 3233.4800
7.7100 3409.1875
7.7200 3372.2100
7.7300 3630.1025
7.7400 3481.8825
7.7500 3579.1100
7.7600 3772.7375
7.7700 3671.4175
7.7800 3304.4550
7.7900 3292.5025
7.8000 3460.8750
7.8100 3535.1850
7.8200 3731.5725
7.8300 3629.8425
7.8400 3481.0875
7.8500 3343.9325
7.8600 3527.9300
7.8700 3746.3200
7.8800 3740.1325
7.8900 3842.2000
7.9000 3822.4825
7.9100 3805.3575
7.9200 3839.8625
7.9300 4058.7225
7.9400 4025.2975
7.9500 4585.9875
7.9600 4234.2475
7.9700 4194.6600
7.9800 4331.1100
7.9900 4769.0850
8.0000 5190.2675
8.0100 5520.6850
8.0200 5966.9300
8.0300 6644.7950
8.0400 6919.5025
8.0500 7414.3225
8.0600 7597.6600
8.0700 7485.3850
8.0800 8054.1450
8.0900 8967.6775
8.1000 10160.5825
8.1100 11644.8425
8.1200 13151.2700
8.1300 14246.2850
8.1400 16748.7825
8.1500 19340.3650
8.1600 21643.5000
8.1700 25396.3900
8.1800 29047.5500
8.1900 33592.3400
8.2000 39747.0475
8.2100 47176.3750
8.2200 54042.5675
8.2300 61785.0750
8.2400 71385.9525
8.2500 81213.3850
8.2600 87622.8650
8.2700 92099.1575
8.2800 95803.3750
8.2900 94789.8625
8.3000 88380.3600
8.3100 80369.9125
8.3200 71391.4025
8.3300 60102.1925
8.3400 48637.1525
8.3500 38170.2875
8.3600 30019.4975
8.3700 24312.3750
8.3800 19367.0750
8.3900 16203.0100
8.4000 14349.8825
8.4100 13433.7225
8.4200 12827.3400
8.4300 11893.4800
8.4400 11221.1575
8.4500 11901.3850
8.4600 13295.8875
8.4700 13642.6075
8.4800 14488.2350
8.4900 16477.3725
8.5000 18286.1100
8.5100 19909.4800
8.5200 20898.1225
8.5300 24630.9575
8.5400 29544.9775
8.5500 33803.4550
8.5600 38027.2400
8.5700 44593.1625
8.5800 51467.1525
8.5900 59157.4900
8.6000 69598.5500
8.6100 79476.7175
8.6200 91199.9200
8.6300 102117.1300
8.6400 110206.9800
8.6500 115433.8200
8.6600 113296.7175
8.6700 106054.6300
8.6800 96618.0950
8.6900 85698.2150
8.7000 71926.9875
8.7100 56867.8550
8.7200 44595.6675
8.7300 34330.9700
8.7400 25621.4600
8.7500 18358.7400
8.7600 14409.9050
8.7700 12050.5125
8.7800 10040.1300
8.7900 8634.0625
8.8000 7753.6400
8.8100 7767.6925
8.8200 7954.8500
8.8300 7743.6375
8.8400 6974.2425
8.8500 6434.4725
8.8600 6168.7250
8.8700 5803.1575
8.8800 5826.8850
8.8900 5987.9500
8.9000 5973.7950
8.9100 5942.1025
8.9200 5644.1625
8.9300 5318.8375
8.9400 4868.0875
8.9500 4595.9800
8.9600 4553.4150
8.9700 4615.0450
8.9800 4336.5875
8.9900 4356.6350
9.0000 4751.6625
9.0100 4842.1525
9.0200 4711.1850
9.0300 4524.0125
9.0400 4510.2675
9.0500 4410.9150
9.0600 4462.9050
9.0700 4357.5575
9.0800 4362.5225
9.0900 4572.6350
9.1000 4698.2075
9.1100 4717.9150
9.1200 4452.1575
9.1300 4319.9300
9.1400 4760.6100
9.1500 4787.5300
9.1600 4442.3975
9.1700 4615.1825
9.1800 4848.3475
9.1900 5009.1725
9.2000 4670.5875
9.2100 4430.0800
9.2200 4489.4325
9.2300 4286.8900
9.2400 4188.7000
9.2500 4208.9375
9.2600 4098.1475
9.2700 3777.2625
9.2800 3667.1625
9.2900 3434.1150
9.3000 3366.5875
9.3100 3602.2025
9.3200 3646.3600
9.3300 3395.1750
9.3400 3142.1325
9.3500 3085.6800
9.3600 2948.2400
9.3700 2608.0050
9.3800 2665.8675
9.3900 2994.6450
9.4000 3031.5300
9.4100 2916.7200
9.4200 2980.3550
9.4300 2955.9625
9.4400 2862.2425
9.4500 2710.7525
9.4600 2675.2800
9.4700 2594.1700
9.4800 2817.6150
9.4900 3089.3750
9.5000 2983.7075
9.5100 2820.9025
9.5200 2944.4800
9.5300 2774.5500
9.5400 2489.8525
9.5500 2596.5775
9.5600 2684.0175
9.5700 2506.7925
9.5800 2547.7300
9.5900 2752.1700
9.6000 2600.9025
9.6100 2503.6850
9.6200 2827.3575
9.6300 2988.0775
9.6400 2932.6275
9.6500 2784.9475
9.6600 2908.6050
9.6700 2848.2625
9.6800 2795.0425
9.6900 2848.7625
9.7000 2758.6725
9.7100 2853.5025
9.7200 3027.6050
9.7300 2796.3325
9.7400 2681.7550
9.7500 3051.0400
9.7600 3353.9400
9.7700 3293.5125
9.7800 3334.7950
9.7900 3659.5375
9.8000 3853.5025
9.8100 3854.4125
9.8200 4384.9950
9.8300 5092.1325
9.8400 5435.2200
9.8500 5813.7875
9.8600 6701.4250
9.8700 7636.7300
9.8800 8351.7925
9.8900 9371.7575
9.9000 10755.6425
9.9100 12279.5950
9.9200 14760.3000
9.9300 17953.4100
9.9400 20937.3950
9.9500 24097.2125
9.9600 27557.7650
9.9700 30697.1050
9.9800 33370.9125
9.9900 35779.6375
10.0000 37141.2450
10.0100 37730.1700
10.0200 36685.5975
10.0300 33071.9900
10.0400 27805.6875
10.0500 23025.1750
10.0600 18559.2250
10.0700 14760.6450
10.0800 11821.3225
10.0900 9168.4800
10.1000 7206.2125
10.1100 5677.5550
10.1200 4649.6675
10.1300 4534.8425
10.1400 4322.5575
10.1500 3815.2800
10.1600 3581.0650
10.1700 3609.0250
10.1800 3475.0700
10.1900 3233.5725
10.2000 3164.3750
10.2100 3173.3525
10.2200 2783.6625
10.2300 2564.4075
10.2400 2916.4350
10.2500 2892.3300
10.2600 2769.4300
10.2700 2845.6700
10.2800 2678.3050
10.2900 2670.7850
10.3000 2679.7025
10.3100 2501.7600
10.3200 2451.3825
10.3300 2436.8450
10.3400 2319.9750
10.3500 2293.7375
10.3600 2297.5375
10.3700 2355.3625
10.3800 2329.2225
10.3900 2243.0025
10.4000 2180.9550
10.4100 2136.9350
10.4200 2194.4225
10.4300 2258.1975
10.4400 2232.3750
10.4500 2188.4425
10.4600 2049.8875
10.4700 1946.2325
10.4800 2127.4325
10.4900 2221.8500
10.5000 2195.7725
10.5100 2281.9650
10.5200 2216.2850
10.5300 1936.7100
10.5400 1838.3400
10.5500 1772.7700
10.5600 1798.9075
10.5700 2084.5850
10.5800 2203.1575
10.5900 2194.6225
10.6000 2152.2250
10.6100 2236.1750
10.6200 2422.0050
10.6300 2387.2875
10.6400 2226.7300
10.6500 2216.8550
10.6600 2354.2875
10.6700 2285.6475
10.6800 2515.4625
10.6900 2567.7175
10.7000 2480.4150
10.7100 2484.7975
10.7200 2521.9675
10.7300 2829.1525
10.7400 3068.4550
10.7500 3306.0975
10.7600 3718.5800
10.7700 4092.8300
10.7800 4491.8475
10.7900 4983.5375
10.8000 5515.0450
10.8100 6581.9275
10.8200 7863.2825
10.8300 9052.1925
10.8400 10554.0425
10.8500 12519.2950
10.8600 14675.8775
10.8700 16873.9300
10.8800 18471.8625
10.8900 20497.6500
10.9000 21817.0075
10.9100 22180.1275
10.9200 21647.8275
10.9300 20005.6425
10.9400 17673.8175
10.9500 15064.1700
10.9600 12038.0050
10.9700 9411.2450
10.9800 7390.4950
10.9900 5538.7825
11.0000 4194.3850
11.0100 3385.8475
11.0200 2880.4500
11.0300 2712.1025
11.0400 2545.8425
11.0500 2294.3425
11.0600 2377.3150
11.0700 2505.2875
11.0800 2421.5850
11.0900 2197.6175
11.1000 2077.4375
11.1100 2043.1300
11.1200 1855.6700
11.1300 1671.1700
11.1400 1735.5175
11.1500 1865.0175
11.1600 1850.4375
11.1700 1797.2900
11.1800 1671.4300
11.1900 1731.7475
11.2000 1692.1725
11.2100 1584.5375
11.2200 1615.0825
11.2300 1653.1775
11.2400 1551.9700
11.2500 1452.2100
11.2600 1613.9175
11.2700 1773.7700
11.2800 1637.3075
11.2900 1581.4325
11.3000 1642.9175
11.3100 1558.5600
11.3200 1407.8150
11.3300 1410.7100
11.3400 1409.3650
11.3500 1372.8575
11.3600 1481.3500
11.3700 1531.0150
11.3800 1490.5475
11.3900 1446.2825
11.4000 1483.8700
11.4100 1420.5975
11.4200 1275.0125
11.4300 1320.0800
11.4400 1420.3350
11.4500 1458.0400
11.4600 1483.9600
11.4700 1401.7800
11.4800 1361.0475
11.4900 1398.7050
11.5000 1286.2275
11.5100 1206.7300
11.5200 1309.3850
11.5300 1363.2175
11.5400 1549.0900
11.5500 1562.5350
11.5600 1471.0900
11.5700 1374.9400
11.5800 1383.0925
11.5900 1360.9775
11.6000 1335.1300
11.6100 1323.6300
11.6200 1332.7950
11.6300 1427.1275
11.6400 1321.8250
11.6500 1249.0500
11.6600 1388.3125
11.6700 1348.7075
11.6800 1134.1450
11.6900 1069.7525
11.7000 1226.8225
11.7100 1330.7975
11.7200 1210.3100
11.7300 1145.7675
11.7400 1272.2725
11.7500 1427.1025
11.7600 1306.1125
11.7700 1357.7975
11.7800 1552.5225
11.7900 1453.1500
11.8000 1302.8200
11.8100 1428.9150
11.8200 1408.5900
11.8300 1364.4950
11.8400 1362.8200
11.8500 1315.1325
11.8600 1387.2250
11.8700 1429.5950
11.8800 1314.5650
11.8900 1348.7250
11.9000 1396.9050
11.9100 1288.1650
11.9200 1170.9025
11.9300 1224.9750
11.9400 1218.3575
11.9500 1133.2025
11.9600 1149.5375
11.9700 1301.6200
11.9800 1304.1475
11.9900 1164.2975
12.0000 1116.9275
12.0100 1230.7825
12.0200 1465.8175
12.0300 1408.8325
12.0400 1182.8250
12.0500 1055.2275
12.0600 1036.5100
12.0700 1129.9900
12.0800 1258.0400
12.0900 1243.9300
12.1000 1156.6650
12.1100 1203.3450
12.1200 1246.0875
12.1300 1332.3275
12.1400 1313.5125
12.1500 1203.3050
12.1600 1122.9400
12.1700 1131.9475
12.1800 1135.1875
12.1900 1015.5450
12.2000 1127.2275
12.2100 1374.2875
12.2200 1370.3200
12.2300 1355.6400
12.2400 1275.4975
12.2500 1170.5625
12.2600 1211.2425
12.2700 1300.3125
12.2800 1373.0900
12.2900 1436.5125
12.3000 1345.7175
12.3100 1227.0650
12.3200 1173.2425
12.3300 1165.2125
12.3400 1187.3200
12.3500 1241.2125
12.3600 1382.1525
12.3700 1283.8750
12.3800 1092.1650
12.3900 1247.7050
12.4000 1271.6425
12.4100 1087.5100
12.4200 988.3450
12.4300 953.0375
12.4400 979.3750
12.4500 1082.7875
12.4600 1069.8250
12.4700 1053.9800
12.4800 1085.6350
12.4900 1100.2000
12.5000 1189.5200
12.5100 1205.7350
12.5200 1170.3200
12.5300 1249.7300
12.5400 1290.8800
12.5500 1213.4775
12.5600 1126.5950
12.5700 1117.9175
12.5800 1219.7950
12.5900 1088.3750
12.6000 1008.3625
12.6100 1167.3325
12.6200 1169.0325
12.6300 1071.1525
12.6400 917.1450
12.6500 852.8475
12.6600 1057.6700
12.6700 1166.2950
12.6800 1170.4125
12.6900 1216.9550
12.7000 1227.4475
12.7100 1226.4850
12.7200 1225.5250
12.7300 1224.5675
12.7400 1171.5050
12.7500 1202.9000
12.7600 1192.6125
12.7700 1149.0400
12.7800 1261.7150
12.7900 1276.0225
12.8000 1204.9750
12.8100 1244.2450
12.8200 1353.4225
12.8300 1383.7250
12.8400 1436.9625
12.8500 1440.1400
12.8600 1381.9550
12.8700 1572.9975
12.8800 1755.7200
12.8900 1970.1575
12.9000 2278.7025
12.9100 2403.7225
12.9200 2616.8625
12.9300 3280.1375
12.9400 3850.3250
12.9500 4340.2875
12.9600 5047.1150
12.9700 6017.0825
12.9800 6998.5800
12.9900 8175.9875
13.0000 9225.8025
13.0100 9414.0950
13.0200 9378.6475
13.0300 9265.3075
13.0400 8721.9700
13.0500 7874.7375
13.0600 6850.3950
13.0700 5897.8125
13.0800 4933.4725
13.0900 3896.5100
13.1000 3029.7900
13.1100 2527.3050
13.1200 2226.8325
13.1300 1806.0800
13.1400 1516.7450
13.1500 1396.0725
13.1600 1265.2225
13.1700 1281.4225
13.1800 1336.2475
13.1900 1274.7425
13.2000 1216.1300
13.2100 1228.3800
13.2200 1164.4625
13.2300 1084.2100
13.2400 1071.1875
13.2500 1059.0450
13.2600 1119.1350
13.2700 1223.5975
13.2800 1158.6900
13.2900 1080.1325
13.3000 1089.8625
13.3100 1138.2150
13.3200 1218.1400
13.3300 1143.3300
13.3400 1039.8825
13.3500 1124.0825
13.3600 1201.7375
13.3700 1117.4950
13.3800 1108.7550
13.3900 1068.6725
13.4000 929.5925
13.4100 991.1825
13.4200 1127.9550
13.4300 1172.9325
13.4400 1052.4825
13.4500 832.3775
13.4600 848.2150
13.4700 1032.1900
13.4800 1051.2775
13.4900 994.0575
13.5000 1005.1325
13.5100 968.5075
13.5200 957.9925
13.5300 955.8475
13.5400 921.3050
13.5500 932.3625
13.5600 1001.5375
13.5700 1022.0650
13.5800 952.4400
13.5900 941.2775
13.6000 858.2100
13.6100 802.7550
13.6200 916.9900
13.6300 972.2825
13.6400 937.1175
13.6500 913.9175
13.6600 878.5475
13.6700 1017.4450
13.6800 1047.0350
13.6900 899.7375
13.7000 910.8525
13.7100 921.1925
13.7200 851.8775
