#Intensity_unit=cps
#Attenuator_coefficient=1.0000
3.0000 9193.9400
3.0100 9084.7425
3.0200 9641.7250
3.0300 8741.9700
3.0400 8411.0350
3.0500 8365.3225
3.0600 7586.1850
3.0700 8230.9650
3.0800 8550.7375
3.0900 8972.2775
3.1000 9033.4000
3.1100 8676.2375
3.1200 8167.9175
3.1300 7482.0550
3.1400 7982.0850
3.1500 8584.9975
3.1600 8664.9925
3.1700 8958.8225
3.1800 8281.8425
3.1900 7218.8600
3.2000 7239.2750
3.2100 8299.0850
3.2200 7478.0225
3.2300 7382.1600
3.2400 7708.0725
3.2500 7442.6475
3.2600 7660.5525
3.2700 7087.2600
3.2800 6693.3075
3.2900 6543.3275
3.3000 6889.6600
3.3100 7262.2500
3.3200 6929.2300
3.3300 6897.1025
3.3400 7120.9850
3.3500 7755.5050
3.3600 7796.3500
3.3700 7980.6625
3.3800 7934.4075
3.3900 7893.6875
3.4000 7499.5425
3.4100 6429.9350
3.4200 6555.2625
3.4300 6548.8875
3.4400 6366.2225
3.4500 6021.5150
3.4600 6517.2525
3.4700 7360.6025
3.4800 7221.7575
3.4900 6988.5925
3.5000 6216.6050
3.5100 6529.0625
3.5200 6415.9075
3.5300 7057.5525
3.5400 6569.9600
3.5500 5692.2150
3.5600 5858.5750
3.5700 6207.6525
3.5800 5908.2400
3.5900 5946.7100
3.6000 5546.8825
3.6100 5776.7725
3.6200 5706.9275
3.6300 5864.1250
3.6400 6173.0375
3.6500 6223.3125
3.6600 5797.0275
3.6700 5748.6925
3.6800 6495.5100
3.6900 6121.1975
3.7000 6375.2675
3.7100 6794.0025
3.7200 6524.2975
3.7300 6890.8225
3.7400 6855.7175
3.7500 7334.9475
3.7600 7051.3625
3.7700 6999.1500
3.7800 7194.4075
3.7900 7356.1250
3.8000 6977.7900
3.8100 6795.3100
3.8200 6371.3725
3.8300 6126.4225
3.8400 6464.9000
3.8500 6932.9025
3.8600 8553.5425
3.8700 8093.3775
3.8800 8369.8250
3.8900 8034.0700
3.9000 8279.4800
3.9100 9178.2325
3.9200 9177.8600
3.9300 9671.2775
3.9400 10231.9850
3.9500 11007.3025
3.9600 11282.9075
3.9700 12777.8475
3.9800 12763.4300
3.9900 12757.7425
4.0000 13681.9425
4.0100 14934.2775
4.0200 16335.1025
4.0300 18127.5050
4.0400 19155.4225
4.0500 18981.8700
4.0600 20488.8450
4.0700 21536.5650
4.0800 24368.6400
4.0900 26951.6175
4.1000 29433.5425
4.1100 31040.3400
4.1200 33530.1600
4.1300 38506.6100
4.1400 42747.5425
4.1500 46912.4575
4.1600 49548.4175
4.1700 54499.7800
4.1800 59121.2625
4.1900 62034.6525
4.2000 65600.7325
4.2100 73786.6625
4.2200 84162.8650
4.2300 93678.5000
4.2400 103424.3650
4.2500 112995.3975
4.2600 125647.1975
4.2700 135812.6225
4.2800 145187.8125
4.2900 157347.5700
4.3000 174636.0850
4.3100 185167.0525
4.3200 201164.3100
4.3300 221369.4100
4.3400 233734.3525
4.3500 247618.7175
4.3600 262478.5825
4.3700 275866.3900
4.3800 289522.8125
4.3900 298403.4175
4.4000 307178.6375
4.4100 304199.6975
4.4200 301646.7750
4.4300 292323.5375
4.4400 264234.4475
4.4500 228073.4550
4.4600 188587.7725
4.4700 150999.3400
4.4800 116109.2000
4.4900 83783.1800
4.5000 60296.9850
4.5100 45898.1175
4.5200 35237.9100
4.5300 28966.3850
4.5400 24362.8000
4.5500 21310.2550
4.5600 19568.9750
4.5700 17359.0750
4.5800 15679.4350
4.5900 15794.2575
4.6000 15009.4700
4.6100 13099.7375
4.6200 12076.0625
4.6300 11533.6875
4.6400 11039.5100
4.6500 11476.4075
4.6600 11362.5275
4.6700 10132.2450
4.6800 9621.2475
4.6900 9452.8300
4.7000 9147.4775
4.7100 8899.4625
4.7200 8429.3850
4.7300 8593.3925
4.7400 8565.5250
4.7500 8013.9700
4.7600 8046.2400
4.7700 6938.4825
4.7800 6725.4850
4.7900 6906.3000
4.8000 6390.6675
4.8100 6706.8675
4.8200 6398.9350
4.8300 5362.0725
4.8400 5670.0425
4.8500 6182.7125
4.8600 5736.8250
4.8700 5364.2125
4.8800 5682.8525
4.8900 5840.0150
4.9000 5843.1150
4.9100 5927.9475
4.9200 5897.6400
4.9300 5581.9425
4.9400 5816.9125
4.9500 5574.6150
4.9600 6032.0875
4.9700 6485.1700
4.9800 5563.2225
4.9900 5760.6125
5.0000 5676.4625
5.0100 4740.9850
5.0200 4934.5425
5.0300 5261.3925
5.0400 4888.6200
5.0500 5025.7900
5.0600 4825.0675
5.0700 4354.3050
5.0800 4412.8400
5.0900 4648.6725
5.1000 5114.5875
5.1100 5191.6275
5.1200 4798.8450
5.1300 4304.3150
5.1400 3674.4100
5.1500 3733.2950
5.1600 4255.3025
5.1700 4076.2900
5.1800 3874.6850
5.1900 4109.1950
5.2000 4189.5225
5.2100 4271.5325
5.2200 4427.4800
5.2300 4059.7225
5.2400 4054.1200
5.2500 3778.1275
5.2600 3134.3825
5.2700 3085.9975
5.2800 3256.9350
5.2900 3780.7975
5.3000 3669.7975
5.3100 3311.3325
5.3200 3568.7150
5.3300 3634.8800
5.3400 3569.8125
5.3500 3810.1425
5.3600 3498.9125
5.3700 3231.3200
5.3800 3268.3075
5.3900 3248.1025
5.4000 3486.1775
5.4100 3308.7675
5.4200 3001.1425
5.4300 2751.9325
5.4400 2646.2425
5.4500 3053.0900
5.4600 2724.3950
5.4700 2475.5700
5.4800 2696.1525
5.4900 2862.3400
5.5000 3138.8525
5.5100 3303.7725
5.5200 2739.2400
5.5300 2783.8375
5.5400 3157.5600
5.5500 2960.8300
5.5600 2854.8775
5.5700 2600.8000
5.5800 2634.1925
5.5900 2548.6050
5.6000 3119.3200
5.6100 2917.4800
5.6200 2728.0025
5.6300 2913.5900
5.6400 2775.6725
5.6500 3147.7350
5.6600 3177.3450
5.6700 3331.8575
5.6800 3194.8500
5.6900 2875.4075
5.7000 2663.8300
5.7100 2978.5875
5.7200 2981.1050
5.7300 2532.5275
5.7400 1946.0650
5.7500 2823.5525
5.7600 2989.0725
5.7700 2634.8225
5.7800 2213.8000
5.7900 2689.7925
5.8000 2542.6125
5.8100 2765.1700
5.8200 2691.3825
5.8300 2694.4300
5.8400 2405.0475
5.8500 2483.0800
5.8600 2627.4350
5.8700 2612.3250
5.8800 2593.7725
5.8900 2666.8125
5.9000 2690.4975
5.9100 2531.7200
5.9200 2124.8275
5.9300 2186.5250
5.9400 2406.4525
5.9500 2573.3625
5.9600 2458.5975
5.9700 2207.9250
5.9800 2286.0175
5.9900 2641.6525
6.0000 2408.9250
6.0100 2467.5525
6.0200 2420.4700
6.0300 2299.2525
6.0400 1929.7575
6.0500 1913.0175
6.0600 2138.6400
6.0700 2279.5650
6.0800 2415.3900
6.0900 2676.1225
6.1000 2755.4450
6.1100 2196.1825
6.1200 1946.6400
6.1300 2224.1975
6.1400 2295.1975
6.1500 2240.8725
6.1600 2259.9375
6.1700 2160.5825
6.1800 2078.9525
6.1900 2170.8600
6.2000 2572.0975
6.2100 2163.1500
6.2200 2096.3375
6.2300 2148.4125
6.2400 2289.0375
6.2500 2196.9850
6.2600 1922.9025
6.2700 1908.4500
6.2800 2111.6925
6.2900 1963.5000
6.3000 1948.6875
6.3100 2079.7450
6.3200 1905.2075
6.3300 2102.4150
6.3400 2350.5650
6.3500 2437.2025
6.3600 2201.0375
6.3700 2136.3300
6.3800 2426.8875
6.3900 2148.6575
6.4000 2063.8875
6.4100 2018.5250
6.4200 1814.2175
6.4300 2020.1625
6.4400 2299.7825
6.4500 2261.1650
6.4600 2113.1550
6.4700 2103.2000
6.4800 2525.6350
6.4900 2548.9000
6.5000 1874.7150
6.5100 1659.8875
6.5200 2011.6450
6.5300 2349.1350
6.5400 2359.6000
6.5500 2362.5750
6.5600 2000.8325
6.5700 1847.8275
6.5800 1811.3550
6.5900 2097.4050
6.6000 2384.4400
6.6100 2114.1600
6.6200 2108.5825
6.6300 2026.4175
6.6400 1602.9550
6.6500 1517.5625
6.6600 2006.5375
6.6700 2226.6050
6.6800 2137.7750
6.6900 1896.1550
6.7000 1877.8050
6.7100 2164.7650
6.7200 2302.6350
6.7300 2083.8025
6.7400 1986.0200
6.7500 1852.7500
6.7600 1795.9500
6.7700 1890.6775
6.7800 2057.9900
6.7900 1882.6075
6.8000 1914.4950
6.8100 2126.6925
6.8200 2190.9775
6.8300 2412.4100
6.8400 2663.3150
6.8500 2694.7725
6.8600 2390.2075
6.8700 2042.7325
6.8800 2263.5500
6.8900 2521.5750
6.9000 2318.2975
6.9100 2302.3600
6.9200 2149.9925
6.9300 2129.3850
6.9400 2027.4050
6.9500 2159.1250
6.9600 2330.3675
6.9700 2273.4325
6.9800 1886.8200
6.9900 1954.9225
7.0000 2294.4325
7.0100 2491.2050
7.0200 2341.9400
7.0300 2443.9300
7.0400 2489.7275
7.0500 2596.0425
7.0600 2983.8800
7.0700 3034.3150
7.0800 2928.7900
7.0900 3112.0075
7.1000 3475.5000
7.1100 3407.6950
7.1200 3779.1000
7.1300 3639.5425
7.1400 3215.5550
7.1500 3393.7900
7.1600 4125.5350
7.1700 4204.6700
7.1800 3758.3200
7.1900 3383.7400
7.2000 3136.3850
7.2100 3185.3675
7.2200 3084.7200
7.2300 3133.4025
7.2400 3241.5450
7.2500 3293.2475
7.2600 3153.7700
7.2700 3172.0450
7.2800 3000.6575
7.2900 2815.5975
7.3000 2713.2625
7.3100 2595.0325
7.3200 2493.2550
7.3300 2785.3725
7.3400 2751.4150
7.3500 2756.0400
7.3600 2471.6650
7.3700 2236.2175
7.3800 2222.6850
7.3900 2435.5050
7.4000 2524.3400
7.4100 2376.6975
7.4200 2480.5275
7.4300 2671.0450
7.4400 2375.6900
7.4500 2071.6750
7.4600 2374.9525
7.4700 2428.2300
7.4800 2258.5475
7.4900 2203.0775
7.5000 2256.9250
7.5100 2195.1150
7.5200 2294.3500
7.5300 2187.3400
7.5400 2275.0475
7.5500 2294.2650
7.5600 2265.0750
7.5700 2430.3400
7.5800 2253.6225
7.5900 1993.3575
7.6000 1925.4375
7.6100 2145.6775
7.6200 2636.4250
7.6300 2704.6175
7.6400 2344.2200
7.6500 2087.1625
7.6600 2308.3525
7.6700 2380.4975
7.6800 2158.8075
7.6900 2312.0275
7.7000 2261.6625
7.7100 2235.4200
7.7200 2012.6825
7.7300 1784.0275
7.7400 2001.9800
7.7500 2265.1550
7.7600 2110.1300
7.7700 2003.5925
7.7800 2163.2300
7.7900 2265.2600
7.8000 2410.0325
7.8100 2471.7500
7.8200 2414.8950
7.8300 2412.7200
7.8400 2502.8625
7.8500 2378.2350
7.8600 2430.9250
7.8700 2545.7400
7.8800 2568.3675
7.8900 2671.2350
7.9000 2666.5625
7.9100 2478.7375
7.9200 2530.1300
7.9300 2433.3725
7.9400 2642.2575
7.9500 2544.4550
7.9600 2713.6075
7.9700 2721.1050
7.9800 2783.9225
7.9900 2740.5025
8.0000 2789.7425
8.0100 2967.7050
8.0200 3132.1275
8.0300 3412.8200
8.0400 3317.3800
8.0500 3236.2825
8.0600 3502.8700
8.0700 3549.7575
8.0800 4149.0675
8.0900 4362.1850
8.1000 4919.9475
8.1100 5247.2275
8.1200 5814.9575
8.1300 6344.4875
8.1400 6515.6800
8.1500 7244.1925
8.1600 7923.2925
8.1700 8915.0150
8.1800 9907.3425
8.1900 11021.6700
8.2000 12940.8200
8.2100 14420.8650
8.2200 15677.2550
8.2300 17646.2350
8.2400 20804.7425
8.2500 24302.0600
8.2600 27690.0775
8.2700 31392.8425
8.2800 36532.1700
8.2900 39952.1875
8.3000 42773.6000
8.3100 47661.7325
8.3200 53095.9175
8.3300 56589.4725
8.3400 60598.7825
8.3500 65581.3175
8.3600 69281.3725
8.3700 72175.1400
8.3800 72286.6750
8.3900 70561.4325
8.4000 68746.3625
8.4100 63813.1350
8.4200 56574.7525
8.4300 48429.4500
8.4400 40096.0525
8.4500 31108.1825
8.4600 24294.3600
8.4700 19500.3425
8.4800 15889.4900
8.4900 13173.4150
8.5000 11494.9075
8.5100 10811.8600
8.5200 10481.5750
8.5300 10725.8600
8.5400 11426.8075
8.5500 12428.4650
8.5600 13588.8800
8.5700 15032.4800
8.5800 16729.7900
8.5900 18604.3175
8.6000 21056.3025
8.6100 23638.6700
8.6200 27126.6300
8.6300 30807.0875
8.6400 35497.5975
8.6500 40772.5750
8.6600 44702.4250
8.6700 48851.2850
8.6800 54913.7275
8.6900 60195.3300
8.7000 65145.6750
8.7100 69596.6225
8.7200 75334.4425
8.7300 80602.8975
8.7400 82892.6375
8.7500 84639.8275
8.7600 85115.1250
8.7700 82840.1325
8.7800 76553.4500
8.7900 67746.8125
8.8000 56530.2750
8.8100 44639.0725
8.8200 34158.9150
8.8300 25421.7425
8.8400 18381.8150
8.8500 13680.2675
8.8600 10867.4550
8.8700 9070.5575
8.8800 7462.5425
8.8900 6483.5475
8.9000 5971.4875
8.9100 5151.4575
8.9200 5074.5700
8.9300 5320.8000
8.9400 5320.1475
8.9500 5088.5300
8.9600 4881.4575
8.9700 4359.2500
8.9800 4403.1850
8.9900 4462.0875
9.0000 4439.0550
9.0100 4193.9575
9.0200 3841.2750
9.0300 3879.0850
9.0400 3961.9750
9.0500 4067.3775
9.0600 4037.4450
9.0700 3873.8050
9.0800 3719.9475
9.0900 3578.8525
9.1000 3438.0675
9.1100 3384.5925
9.1200 3315.7400
9.1300 2776.1550
9.1400 2682.3750
9.1500 2899.2475
9.1600 2936.5575
9.1700 3028.6975
9.1800 3001.3575
9.1900 2884.0575
9.2000 2757.9475
9.2100 2469.8225
9.2200 2437.7875
9.2300 2497.0775
9.2400 2558.3300
9.2500 2635.2725
9.2600 2487.1750
9.2700 2491.6200
9.2800 2296.5525
9.2900 2166.8700
9.3000 2366.9925
9.3100 2623.2850
9.3200 2454.2825
9.3300 2072.1975
9.3400 2039.1275
9.3500 2119.6275
9.3600 2171.5625
9.3700 2110.3425
9.3800 2142.2175
9.3900 2147.5975
9.4000 2120.6650
9.4100 1931.5050
9.4200 1984.4775
9.4300 2101.6100
9.4400 1946.3150
9.4500 1969.6375
9.4600 2103.2275
9.4700 1911.5475
9.4800 1918.0825
9.4900 1961.1025
9.5000 1852.5150
9.5100 1842.3250
9.5200 2130.4725
9.5300 2165.5550
9.5400 1987.8075
9.5500 2168.3275
9.5600 2211.8300
9.5700 1945.4825
9.5800 1760.0825
9.5900 1903.3425
9.6000 2112.5875
9.6100 1929.8975
9.6200 1740.6325
9.6300 1875.0300
9.6400 2011.1700
9.6500 2113.6850
9.6600 2260.4450
9.6700 2159.5575
9.6800 2218.9650
9.6900 2214.9825
9.7000 1952.8000
9.7100 1848.4100
9.7200 1898.3675
9.7300 1841.7025
9.7400 1929.2725
9.7500 2012.7700
9.7600 2069.8125
9.7700 2064.9700
9.7800 1900.9750
9.7900 1970.5500
9.8000 2340.2550
9.8100 2547.6600
9.8200 2647.5450
9.8300 2654.6075
9.8400 2763.8175
9.8500 2826.8300
9.8600 2967.0650
9.8700 3429.6650
9.8800 3405.8475
9.8900 3514.7725
9.9000 3739.3925
9.9100 4176.6825
9.9200 4697.0875
9.9300 5342.7325
9.9400 5890.4700
9.9500 6674.4925
9.9600 7680.5225
9.9700 8653.3100
9.9800 9783.6325
9.9900 10963.7125
10.0000 12295.1825
10.0100 14694.3650
10.0200 16443.5375
10.0300 17825.0750
10.0400 19747.0075
10.0500 21381.6975
10.0600 22364.5975
10.0700 23266.1600
10.0800 24770.0375
10.0900 25321.7100
10.1000 25443.4450
10.1100 25220.1875
10.1200 24068.9050
10.1300 21842.0350
10.1400 19632.6700
10.1500 16923.3450
10.1600 13892.3525
10.1700 11092.8075
10.1800 8636.8375
10.1900 6496.0850
10.2000 5311.7100
10.2100 4622.6950
10.2200 3960.4350
10.2300 3292.5325
10.2400 2883.4725
10.2500 2777.9425
10.2600 2671.6775
10.2700 2608.8300
10.2800 2533.3000
10.2900 2409.7750
10.3000 2049.9300
10.3100 1988.6550
10.3200 2101.1625
10.3300 2074.9300
10.3400 2066.9625
10.3500 2185.3925
10.3600 2075.0350
10.3700 1880.7750
10.3800 1938.8225
10.3900 2009.0525
10.4000 1917.4450
10.4100 1783.9200
10.4200 1537.4575
10.4300 1475.3800
10.4400 1682.4750
10.4500 1788.8500
10.4600 1680.4525
10.4700 1571.3850
10.4800 1616.8375
10.4900 1592.4225
10.5000 1525.2950
10.5100 1653.1075
10.5200 1588.6975
10.5300 1532.2300
10.5400 1549.1175
10.5500 1500.5750
10.5600 1387.5800
10.5700 1396.4675
10.5800 1460.4750
10.5900 1436.1500
10.6000 1410.8875
10.6100 1496.5850
10.6200 1502.7900
10.6300 1482.8950
10.6400 1528.1100
10.6500 1844.7625
10.6600 1752.2150
10.6700 1668.4625
10.6800 1767.6700
10.6900 1691.9125
10.7000 1596.3325
10.7100 1502.3575
10.7200 1521.8125
10.7300 1756.2925
10.7400 1971.1775
10.7500 1841.2350
10.7600 1776.6575
10.7700 1686.5350
10.7800 1691.6700
10.7900 1999.0500
10.8000 2265.4625
10.8100 2334.7600
10.8200 2450.8700
10.8300 2768.0475
10.8400 3369.9750
10.8500 3860.9925
10.8600 4240.1650
10.8700 4699.6900
10.8800 5282.6275
10.8900 5701.5000
10.9000 6421.2450
10.9100 7505.1875
10.9200 8477.6050
10.9300 9386.6600
10.9400 10301.1575
10.9500 10986.4850
10.9600 11947.2250
10.9700 12337.4975
10.9800 13073.9500
10.9900 14276.7675
11.0000 14207.9750
11.0100 13428.5375
11.0200 12758.9575
11.0300 11814.4050
11.0400 10532.1525
11.0500 9038.5675
11.0600 7404.0850
11.0700 6112.2750
11.0800 5094.6025
11.0900 3964.8875
11.1000 3111.8975
11.1100 2536.4825
11.1200 2071.1025
11.1300 1855.3350
11.1400 1899.0175
11.1500 1859.5650
11.1600 1787.0750
11.1700 1624.6050
11.1800 1456.9600
11.1900 1340.0550
11.2000 1327.9500
11.2100 1362.1450
11.2200 1360.9350
11.2300 1407.5925
11.2400 1393.9000
11.2500 1357.3200
11.2600 1340.2300
11.2700 1343.1325
11.2800 1496.3225
11.2900 1442.7225
11.3000 1213.1475
11.3100 1224.3850
11.3200 1104.8050
11.3300 1135.7850
11.3400 1311.2800
11.3500 1235.5525
11.3600 1152.1875
11.3700 1323.3225
11.3800 1357.6375
11.3900 1254.7575
11.4000 1261.3400
11.4100 1237.0325
11.4200 1185.1925
11.4300 1187.9425
11.4400 1105.6450
11.4500 1127.1600
11.4600 1196.5575
11.4700 1025.7200
11.4800 942.1050
11.4900 1053.4250
11.5000 972.7525
11.5100 881.8075
11.5200 877.4300
11.5300 956.8200
11.5400 965.0950
11.5500 947.9700
11.5600 955.3150
11.5700 897.1100
11.5800 906.8550
11.5900 956.3525
11.6000 876.2400
11.6100 881.0500
11.6200 938.7475
11.6300 892.6350
11.6400 766.3200
11.6500 785.9375
11.6600 945.5975
11.6700 954.7750
11.6800 922.2575
11.6900 903.1850
11.7000 879.0750
11.7100 893.2650
11.7200 919.0925
11.7300 989.5725
11.7400 946.1050
11.7500 890.2050
11.7600 960.4625
11.7700 1021.0875
11.7800 987.4800
11.7900 966.4750
11.8000 859.2350
11.8100 765.3500
11.8200 926.6125
11.8300 1024.4800
11.8400 926.9450
11.8500 970.6025
11.8600 978.0225
11.8700 889.8075
11.8800 807.4025
11.8900 745.6400
11.9000 835.3175
11.9100 959.5950
11.9200 1008.1750
11.9300 960.9400
11.9400 957.1275
11.9500 1034.5575
11.9600 967.4175
11.9700 842.0825
11.9800 864.1875
11.9900 1024.9725
12.0000 1030.7275
12.0100 931.5850
12.0200 893.2925
12.0300 795.1025
12.0400 810.6350
12.0500 808.1475
12.0600 877.8100
12.0700 995.5825
12.0800 1048.9850
12.0900 940.9150
12.1000 682.6000
12.1100 622.9075
12.1200 711.1050
12.1300 688.7575
12.1400 712.4175
12.1500 797.8325
12.1600 806.2450
12.1700 962.5500
12.1800 1002.3075
12.1900 878.5625
12.2000 843.1800
12.2100 912.3375
12.2200 969.3500
12.2300 954.6275
12.2400 928.3900
12.2500 832.7200
12.2600 887.6825
12.2700 1004.6800
12.2800 960.0425
12.2900 830.1900
12.3000 801.7300
12.3100 959.7400
12.3200 1076.4925
12.3300 1018.4050
12.3400 932.5000
12.3500 977.2650
12.3600 1006.6900
12.3700 900.7875
12.3800 912.9150
12.3900 953.9825
12.4000 943.8175
12.4100 940.9650
12.4200 901.5300
12.4300 972.7750
12.4400 930.5625
12.4500 826.3150
12.4600 839.1675
12.4700 823.0025
12.4800 745.4400
12.4900 779.6450
12.5000 807.6325
12.5100 772.5275
12.5200 865.7675
12.5300 918.6825
12.5400 814.7550
12.5500 798.6550
12.5600 830.5900
12.5700 818.4575
12.5800 831.1125
12.5900 802.0700
12.6000 753.7650
12.6100 768.2025
12.6200 816.9900
12.6300 865.7025
12.6400 887.9400
12.6500 847.6975
12.6600 838.9925
12.6700 821.8000
12.6800 786.8000
12.6900 799.2950
12.7000 770.8300
12.7100 840.5125
12.7200 983.6425
12.7300 963.4175
12.7400 905.4725
12.7500 930.7825
12.7600 887.9650
12.7700 843.0850
12.7800 866.8175
12.7900 994.0450
12.8000 979.7850
12.8100 940.7450
12.8200 1022.9075
12.8300 1057.8300
12.8400 1055.5700
12.8500 991.9725
12.8600 894.2525
12.8700 771.0675
12.8800 778.7575
12.8900 999.8925
12.9000 1238.0500
12.9100 1290.1000
12.9200 1165.8300
12.9300 1059.7200
12.9400 1328.0100
12.9500 1753.8600
12.9600 1849.9925
12.9700 1904.1425
12.9800 2208.4325
12.9900 2526.4175
13.0000 2739.0775
13.0100 2953.8150
13.0200 3228.6525
13.0300 3725.3450
13.0400 4279.0900
13.0500 4679.6275
13.0600 5109.0600
13.0700 5381.4025
13.0800 5436.3400
13.0900 5654.0900
13.1000 6142.4050
13.1100 6359.7475
13.1200 6149.3325
13.1300 5649.2650
13.1400 5426.9250
13.1500 5006.2850
13.1600 4093.9475
13.1700 3422.5450
13.1800 2924.2175
13.1900 2498.4725
13.2000 2081.9100
13.2100 1705.4975
13.2200 1360.9425
13.2300 1276.2800
13.2400 1390.4350
13.2500 1253.5600
13.2600 995.6950
13.2700 856.4800
13.2800 785.4150
13.2900 884.2700
13.3000 911.2775
13.3100 795.8100
13.3200 760.4875
13.3300 748.6000
13.3400 808.3025
13.3500 828.1700
13.3600 769.5675
13.3700 866.4275
13.3800 930.9225
13.3900 801.1750
13.4000 745.3550
13.4100 815.1875
13.4200 871.7200
13.4300 798.9800
13.4400 814.4850
13.4500 797.3075
13.4600 718.8025
13.4700 705.3000
13.4800 659.0675
13.4900 682.7600
13.5000 716.1175
13.5100 845.3025
13.5200 957.0175
13.5300 803.8900
13.5400 679.6950
13.5500 772.5950
13.5600 757.2225
13.5700 666.4775
13.5800 712.7375
13.5900 780.6375
13.6000 790.9475
13.6100 825.6700
13.6200 811.9875
13.6300 755.0825
13.6400 882.1075
13.6500 1005.3100
13.6600 865.7575
13.6700 706.9625
13.6800 718.5600
13.6900 797.8850
13.7000 888.3425
13.7100 875.2125
13.7200 772.4300
13.7300 726.8950
13.7400 783.6225
13.7500 804.9475
13.7600 747.8075
13.7700 747.6075
13.7800 712.5725
13.7900 610.3825
13.8000 621.8400
13.8100 711.5850
13.8200 710.7475
13.8300 642.6000
13.8400 676.3050
13.8500 743.1475
